n v(n)    Re(T)       Im(T)        Mod(T) 
   
0  208  79001.0  0.0  79001.0  
1  56  -4.203766  -197.49504  197.53978  
2  81  451.79456  -15.841606  452.0722  
3  101  924.7445  198.85759  945.8841  
4  71  -77.84006  -270.49985  281.4769  
5  108  1384.4138  449.2619  1455.4855  
6  89  -56.7632  905.4531  907.23065  
7  172  812.01636  -71.70789  815.1764  
8  78  -196.07199  1460.6904  1473.7913  
9  87  -1517.9249  726.23193  1682.7087  
10  125  -961.31555  -208.33655  983.6319  
11  93  322.2105  -924.1407  978.701  
12  90  189.06693  1112.3134  1128.2673  
13  169  637.46  -556.63794  846.2866  
14  93  -248.10966  674.7108  718.88324  
15  80  -148.6706  -112.35266  186.34932  
16  85  677.2864  822.3908  1065.3842  
17  82  -798.98627  -1004.0083  1283.1257  
18  72  681.6819  -1105.8435  1299.0688  
19  79  8.537224  176.74057  176.94664  
20  71  379.40915  560.1855  676.5789  
21  166  -194.36737  -753.11725  777.7945  
22  132  -378.3412  23.028406  379.04138  
23  112  420.6727  -446.13263  613.18823  
24  58  1700.8665  -762.1363  1863.8129  
25  105  -204.16649  635.5658  667.55365  
26  93  -22.42266  -376.8085  377.47507  
27  78  -1096.6586  437.15628  1180.5785  
28  26  -1284.0396  -1788.227  2201.4797  
29  69  -51.08142  840.6732  842.2237  
30  125  -111.63374  87.31555  141.72543  
31  81  -222.47949  -478.4737  527.66864  
32  126  118.23186  -848.1181  856.31946  
33  50  -201.57553  -740.2929  767.2459  
34  99  -242.86798  400.65607  468.5191  
35  87  811.305  766.2197  1115.934  
36  98  1743.8184  234.0497  1759.455  
37  135  911.3088  627.10516  1106.2299  
38  57  759.9189  648.89435  999.27  
39  153  1255.5588  -137.05438  1263.017  
40  113  -1118.8959  -761.3863  1353.3799  
41  107  306.7309  145.0656  339.305  
42  153  677.2556  686.3798  964.25745  
43  110  -454.2341  -307.40744  548.47784  
44  73  154.676  434.18887  460.91718  
45  172  -391.11334  37.86625  392.9421  
46  59  -667.71674  546.36926  862.7659  
47  121  -774.35974  -563.2703  957.55237  
48  115  1720.8673  787.90155  1892.663  
49  47  288.81732  240.05588  375.55594  
50  123  -347.11984  319.27426  471.623  
51  145  -1859.5104  -818.40466  2031.641  
52  70  -134.806  1228.5753  1235.949  
53  77  477.13074  -32.4486  478.23282  
54  95  259.39346  957.3893  991.90686  
55  61  -952.0979  -551.1313  1100.1073  
56  67  -83.17883  306.64673  317.72778  
57  87  -64.71533  -547.75006  551.55975  
58  72  -1429.944  128.53358  1435.7091  
59  153  556.9465  -443.77106  712.12506  
60  92  -341.81555  986.3834  1043.9302  
61  135  248.43323  -581.9867  632.79346  
62  110  388.98108  673.6698  777.9057  
63  87  1192.7173  727.80975  1397.2407  
64  128  79.208786  545.56866  551.28864  
65  95  450.66345  -1225.4061  1305.6483  
66  110  -99.05648  1061.7216  1066.3324  
67  126  -1201.3716  365.35663  1255.6986  
68  106  -67.20545  872.4283  875.01294  
69  77  769.9614  -892.78986  1178.9463  
70  105  1146.2517  65.693985  1148.1327  
71  115  381.8277  -246.90613  454.70325  
72  98  -283.0832  684.3245  740.56476  
73  82  652.25854  -488.60696  814.9712  
74  102  384.00015  0.5602417  384.00058  
75  47  34.560234  464.1054  465.3904  
76  96  908.54694  660.64636  1123.3483  
77  81  440.37665  142.92703  462.99  
78  73  -837.6903  841.5453  1187.402  
79  87  310.5267  128.62973  336.11374  
80  132  429.2691  78.86671  436.4538  
81  130  1546.8683  -1307.188  2025.2264  
82  61  748.2887  271.68387  796.083  
83  85  -899.03314  -710.148  1145.6748  
84  93  -545.45416  774.6972  947.45764  
85  84  -344.95813  351.32718  492.36868  
86  62  -1036.708  -514.1594  1157.205  
87  103  -843.20844  696.0435  1093.3787  
88  137  -295.65073  37.064323  297.96497  
89  113  349.27698  488.48285  600.50806  
90  86  380.41116  -245.21344  452.59506  
91  125  -903.85266  242.6264  935.8511  
92  61  -1117.8982  126.04272  1124.9814  
93  116  -122.505035  -56.65653  134.97202  
94  83  495.92377  985.4777  1103.2256  
95  15  -172.13553  -41.63573  177.09933  
96  50  -502.00745  -536.65027  734.85034  
97  108  -141.2752  792.92206  805.40924  
98  107  290.27838  -50.61513  294.65814  
99  99  832.25  1681.4695  1876.1609  
100  146  -112.55018  -882.58386  889.7313  
101  99  -1544.02  679.21924  1686.8125  
102  102  438.9361  304.06866  533.96875  
103  140  217.92175  422.71417  475.58087  
104  136  409.8198  109.08119  424.0884  
105  104  -695.5279  528.15027  873.328  
106  104  -55.310986  876.8047  878.54755  
107  76  -30.634659  695.79626  696.47034  
108  95  -1018.7494  -444.3305  1111.4314  
109  124  478.65408  -387.18448  615.6473  
110  94  849.18384  -1117.4814  1403.5234  
111  106  595.2699  250.8884  645.98083  
112  62  -657.39087  -495.02353  822.92834  
113  107  -363.80057  -720.99365  807.5783  
114  91  209.61937  181.7586  277.44635  
115  103  644.181  -582.2487  868.3218  
116  84  766.2868  -486.24237  907.539  
117  94  64.310524  -697.3528  700.3119  
118  138  282.10352  765.9485  816.2472  
119  63  500.57257  904.11584  1033.4401  
120  66  447.45477  146.4878  470.82315  
121  102  1402.68  190.94928  1415.6176  
122  53  -472.63245  1294.6887  1378.2599  
123  38  5.642002  -60.957146  61.217693  
124  70  -773.5831  -795.3064  1109.4788  
125  126  -507.06052  1185.802  1289.6654  
126  136  -135.39192  -944.5719  954.2259  
127  111  -2.2186813  -1088.8643  1088.8665  
128  92  -80.60838  -56.99234  98.72101  
129  142  -616.5569  272.38705  674.04535  
130  137  1769.324  -318.87262  1797.8284  
131  109  -411.30167  -1041.363  1119.6455  
132  124  623.8911  -414.67322  749.12885  
133  107  774.6299  946.8225  1223.3251  
134  119  -643.4034  494.24512  811.32367  
135  91  172.5082  -776.38025  795.31464  
136  103  -1142.854  257.43967  1171.4907  
137  99  94.99501  -216.89853  236.78899  
138  115  374.6998  -883.4746  959.6496  
139  94  -52.583675  -198.22665  205.08253  
140  101  289.07202  -628.6456  691.92334  
141  92  1237.6339  -858.05896  1505.989  
142  24  252.09605  387.68198  462.4389  
143  57  -564.10095  549.3325  787.3856  
144  124  -897.0089  1146.2793  1455.5347  
145  50  396.4417  -37.024696  398.16687  
146  121  -374.26337  -898.27014  973.1199  
147  110  756.8917  -76.10703  760.70844  
148  124  52.408672  -538.86005  541.40265  
149  102  -18.15873  261.76843  262.39752  
150  144  59.611256  -626.6388  629.4678  
151  95  -104.56744  -202.17169  227.61314  
152  104  246.34955  345.81158  424.58658  
153  155  576.3983  10.367844  576.4916  
154  141  723.4711  678.6631  991.9647  
155  43  283.13306  -649.5891  708.6115  
156  70  600.75055  -0.7433548  600.75104  
157  61  489.2307  -507.4225  704.8576  
158  83  -111.640366  -273.70935  295.6017  
159  74  -153.39896  998.8838  1010.59393  
160  121  1122.3173  -1152.1431  1608.4246  
161  194  -119.97467  10.775185  120.45757  
162  51  -296.44577  -66.57314  303.82904  
163  120  492.1  -396.00006  631.6474  
164  86  -315.65482  103.663055  332.24088  
165  95  -315.5257  -710.97485  777.84424  
166  99  -444.09036  1206.2496  1285.4005  
167  85  -427.8726  -28.583061  428.82623  
168  91  -1211.9952  298.01166  1248.096  
169  91  -173.1841  -432.1336  465.54504  
170  71  -630.7348  224.08786  669.35925  
171  90  -672.23706  209.46945  704.1166  
172  128  1150.6473  -910.3318  1467.2059  
173  53  6.229534  601.26013  601.2924  
174  59  -174.90402  -226.07248  285.83243  
175  13  -188.12029  -199.30362  274.06418  
176  163  180.86316  513.4796  544.4013  
177  84  -180.58028  1742.092  1751.4263  
178  120  657.4024  -659.15814  930.9497  
179  85  12.701305  8.508026  15.287566  
180  175  236.08423  155.46365  282.67422  
181  97  -292.71143  224.04034  368.61096  
182  48  -380.72208  355.5573  520.9321  
183  67  614.6389  -1081.4929  1243.9485  
184  80  87.625565  -725.1846  730.4594  
185  146  -723.62463  1057.5431  1281.4172  
186  95  950.56226  -1114.2152  1464.5969  
187  123  -79.43493  -1127.3776  1130.1726  
188  145  930.7061  434.42203  1027.101  
189  78  1479.0264  254.49463  1500.762  
190  83  250.61165  204.98825  323.769  
191  70  1505.5061  201.19952  1518.891  
192  59  -365.31973  -1148.6946  1205.387  
193  92  -804.4229  -139.73825  816.46985  
194  64  3.6893435  -862.9625  862.9704  
195  130  -123.18595  -886.8267  895.3415  
196  120  289.91455  -484.06015  564.23816  
197  93  -54.077717  670.5967  672.7736  
198  157  1198.0144  -246.12886  1223.0364  
199  91  391.7326  484.32358  622.9155  
200  91  120.42795  543.8988  557.07166  
201  79  -426.24673  -598.7089  734.9412  
202  157  -1065.3225  65.90559  1067.3591  
203  84  -149.36848  216.06076  262.66556  
204  85  1359.7578  368.4923  1408.8037  
205  101  5.226136  68.65872  68.85734  
206  64  -337.93997  -1033.2664  1087.1259  
207  86  -49.581768  421.38373  424.2907  
208  129  385.84134  939.77435  1015.8983  
209  118  684.52936  -573.4719  893.00085  
210  176  88.538956  431.83795  440.821  
211  123  1027.9601  -199.61426  1047.1617  
212  80  -521.3778  660.4761  841.4651  
213  16  -173.64503  1055.055  1069.2491  
214  115  427.6508  95.8619  438.26328  
215  114  -413.63287  298.51385  510.10068  
216  86  -711.94666  716.1037  1009.7883  
217  93  211.70543  805.5061  832.86206  
218  33  1112.2358  -701.0862  1314.7587  
219  38  38.03826  -240.85484  243.84004  
220  131  -127.92009  -466.16107  483.39392  
221  55  1040.4094  325.78104  1090.2224  
222  91  -110.209366  498.75775  510.789  
223  72  858.564  -210.85278  884.0764  
224  74  861.5901  -169.12766  878.03284  
225  115  26.313154  446.42435  447.19916  
226  98  405.07764  -545.1334  679.16003  
227  116  -134.0912  410.2633  431.6207  
228  179  700.26074  556.7167  894.59406  
229  79  739.65295  901.14886  1165.8284  
230  73  487.86035  -205.68115  529.44543  
231  130  -74.72064  824.5077  827.88654  
232  102  -427.26614  -226.74603  483.7046  
233  52  180.49747  -158.289  240.07237  
234  172  111.39077  722.7749  731.30804  
235  96  1060.1135  1067.9562  1504.7827  
236  73  -1958.5123  -103.84661  1961.2635  
237  74  475.4914  124.54532  491.5319  
238  71  -270.5235  -174.22838  321.77396  
239  107  2039.5197  -324.84232  2065.227  
240  147  314.52878  -778.2846  839.4375  
241  107  776.7184  -571.72925  964.451  
242  144  -146.6706  226.50548  269.84625  
243  119  114.7879  490.16736  503.42856  
244  105  -575.5205  -66.65384  579.3674  
245  117  680.2834  904.13196  1131.4769  
246  108  42.94573  47.653927  64.15008  
247  139  856.152  -808.8658  1177.8201  
248  91  387.5503  734.1048  830.12354  
249  74  164.25372  519.5809  544.9253  
250  171  1562.7227  -891.6724  1799.217  
251  88  833.7233  -729.5956  1107.8828  
252  99  -942.0593  -418.92004  1031.0043  
253  73  1425.9489  -210.56093  1441.4111  
254  126  -214.44969  271.20877  345.74973  
255  109  153.87158  249.69336  293.29718  
256  81  752.7274  -389.08994  847.34265  
257  78  -152.42924  -282.93094  321.37918  
258  38  404.7381  -331.13818  522.9392  
259  122  437.8269  164.10236  467.57028  
260  55  -453.71054  293.52716  540.3808  
261  76  161.96452  194.06233  252.77005  
262  129  -85.73988  564.8153  571.28595  
263  90  957.7709  278.35455  997.3998  
264  75  -84.271194  353.41382  363.3221  
265  145  -124.296974  960.12463  968.1369  
266  108  1028.4458  -211.22742  1049.9132  
267  137  -277.91415  -375.0874  466.82635  
268  65  -813.05096  706.949  1077.4176  
269  118  370.80884  -515.0831  634.673  
270  102  -331.13068  737.06714  808.0318  
271  135  -275.13275  -124.22092  301.87558  
272  147  -1325.7544  -332.57068  1366.8314  
273  107  523.43  -1273.4971  1376.871  
274  80  -60.873096  -1706.373  1707.4585  
275  121  -654.48456  -965.3065  1166.2618  
276  120  -1013.48535  -782.6796  1280.5233  
277  47  1065.4109  822.47906  1345.9467  
278  47  -836.8761  -730.2339  1110.6769  
279  84  672.76  175.5758  695.2934  
280  136  752.7071  1034.9894  1279.7543  
281  91  39.53337  638.374  639.597  
282  29  -7.8927  179.37128  179.54485  
283  113  465.36768  1158.0094  1248.0195  
284  138  417.6829  421.87488  593.66437  
285  85  1048.8063  -647.7067  1232.6876  
286  116  -718.56445  -3.150673  718.57135  
287  50  779.8187  -69.53558  782.9128  
288  124  622.5974  45.005066  624.2219  
289  119  -146.0112  10.72879  146.40485  
290  44  397.40182  597.7877  717.8289  
291  127  179.79614  103.091606  207.25475  
292  88  -1452.2916  149.4272  1459.9587  
293  143  -934.4148  571.4912  1095.3234  
294  87  299.2008  195.08485  357.18234  
295  74  -37.49626  730.35944  731.32135  
296  90  -1073.1141  304.36987  1115.4438  
297  111  191.75978  1491.5039  1503.7805  
298  108  468.2202  -409.5551  622.06555  
299  70  1202.8018  395.4062  1266.1272  
300  81  1038.0859  450.19818  1131.5038  
301  140  -268.09488  682.744  733.49457  
302  70  993.92004  831.03467  1295.5677  
303  110  525.9086  -354.29532  634.11755  
304  124  222.78455  223.55054  315.60703  
305  85  346.97955  390.76392  522.58136  
306  137  -407.62006  -1334.4861  1395.352  
307  136  655.51184  740.21075  988.7405  
308  71  356.53207  -482.5952  600.01105  
309  78  548.66284  397.19113  677.3416  
310  140  -960.53375  125.29193  968.6708  
311  91  725.49097  111.95566  734.0785  
312  117  -40.063004  122.433815  128.82191  
313  91  -773.3953  787.0334  1103.4319  
314  149  548.65375  -1116.4019  1243.9349  
315  116  -396.24353  879.1785  964.3463  
316  124  246.5791  228.1706  335.95102  
317  46  749.5418  1247.2656  1455.1578  
318  96  -393.4425  836.3636  924.28406  
319  100  -748.3134  410.43988  853.48334  
320  156  -776.5809  -860.78357  1159.3214  
321  78  185.07504  -416.84622  456.085  
322  150  -524.53485  274.75412  592.1373  
323  97  753.38654  1170.9454  1392.3737  
324  62  663.7333  -120.322525  674.5513  
325  79  317.64343  -1335.5262  1372.781  
326  161  -628.7677  -731.2262  964.3861  
327  86  1898.822  786.0865  2055.1052  
328  116  297.5613  -906.3752  953.97  
329  50  -515.488  -509.96188  725.1131  
330  129  166.75119  -564.6472  588.755  
331  171  -1301.2195  341.22858  1345.2172  
332  89  -32.99071  14.767124  36.144917  
333  42  94.385544  -343.81128  356.53168  
334  28  -340.36948  -533.47864  632.8118  
335  88  -217.72687  -200.03946  295.67004  
336  66  884.2753  294.93103  932.16266  
337  183  -677.96204  -482.3877  832.06396  
338  98  125.60401  -73.39003  145.47325  
339  121  393.89548  -302.13458  496.42618  
340  61  535.3215  -819.8627  979.15466  
341  97  435.2268  -231.59225  493.00845  
342  62  445.43866  -421.84863  613.4915  
343  78  -176.30197  662.0835  685.15466  
344  118  264.74457  -853.4304  893.5509  
345  118  1564.126  737.25494  1729.1718  
346  105  -147.32996  124.90028  193.14812  
347  113  1028.2294  -516.0941  1150.4819  
348  80  235.1275  501.9825  554.3206  
349  110  730.44104  905.6931  1163.5394  
350  108  -486.0812  -683.21765  838.4875  
351  121  1292.2502  398.5322  1352.3086  
352  170  504.8535  253.61229  564.97455  
353  49  714.20197  280.6371  767.36017  
354  101  -513.7398  -252.81136  572.5751  
355  129  412.599  -1434.1509  1492.3226  
356  66  746.79944  -223.34555  779.4823  
357  120  -507.6158  -23.884974  508.17743  
358  74  -167.66397  369.62866  405.8775  
359  57  685.3954  -1001.2618  1213.3804  
360  93  221.53137  52.993393  227.78159  
361  72  -567.39935  110.78769  578.11414  
362  80  -1069.3619  475.75085  1170.4161  
363  78  143.71356  -351.78867  380.01166  
364  155  -217.61305  -45.97876  222.41737  
365  102  -583.26843  -197.75002  615.87915  
366  75  248.16113  -170.95804  301.34796  
367  82  -48.435333  1195.524  1196.5048  
368  118  694.7077  46.50608  696.2626  
369  158  597.6327  -1112.7222  1263.058  
370  94  -213.24095  -574.5505  612.84576  
371  88  207.43692  467.33273  511.30222  
372  85  -82.42094  276.4943  288.51743  
373  64  1118.7358  -508.99835  1229.0847  
374  71  -147.38138  204.14552  251.78694  
375  109  527.8223  193.71933  562.2487  
376  123  -1300.895  503.75482  1395.0258  
377  71  1077.4575  -384.6781  1144.0682  
378  132  1368.5758  -1637.1533  2133.8396  
379  103  -291.06525  203.23442  354.99747  
380  112  748.59143  -553.8509  931.2035  
381  106  -199.27487  329.08752  384.71948  
382  118  -292.61023  664.81085  726.3568  
383  106  -596.7689  -652.062  883.92194  
384  149  -473.32758  -1182.3232  1273.5491  
385  122  631.28326  438.79214  768.80237  
386  118  -1049.2567  -656.9873  1237.971  
387  92  862.9406  621.93396  1063.7051  
388  111  -1100.2091  -1295.2692  1699.4653  
389  21  1221.745  -65.59536  1223.5046  
390  54  503.69666  -940.3573  1066.7625  
391  58  541.82135  -537.79065  763.40625  
392  78  179.19089  760.11676  780.9525  
393  113  163.57782  -749.80225  767.43805  
394  76  -248.24924  -193.69455  314.8734  
395  153  198.47949  106.47222  225.2342  
396  153  517.7445  -591.67236  786.216  
397  100  -341.3844  -529.8372  630.2942  
398  155  -980.8287  -781.4035  1254.0399  
399  120  240.97743  12.012438  241.27664  
400  20  1312.998  1.9597725  1312.9995  
401  179  239.76443  -10.172435  239.98013  
402  45  -982.87445  780.4263  1255.0328  
403  63  -341.77628  529.1383  629.9193  
404  59  517.01184  592.6155  786.44415  
405  105  198.70865  -106.38493  225.39494  
406  50  -248.36191  193.41339  314.78943  
407  64  162.4551  749.7177  767.1169  
408  151  181.39014  -759.5042  780.86426  
409  138  541.11725  539.7457  764.28613  
410  102  501.9608  941.3879  1066.8531  
411  127  1220.0931  67.65352  1221.9674  
412  67  -1103.594  1292.3867  1699.4655  
413  73  863.8038  -620.9191  1063.8127  
414  57  -1050.8694  654.6102  1238.0796  
415  86  632.1072  -437.53937  768.7654  
416  42  -476.2667  1181.3527  1273.7441  
417  68  -597.7517  649.2138  882.48834  
418  87  -290.48587  -666.50397  727.0554  
419  118  -197.42581  -329.63165  384.23166  
420  18  748.2097  555.20825  931.70483  
421  58  -289.6696  -203.58101  354.05325  
422  79  1365.8379  1639.3734  2133.7898  
423  19  1075.3704  384.84015  1142.1572  
424  101  -1300.3108  -507.95325  1396.003  
425  61  528.90894  -193.27426  563.11597  
426  114  -146.22653  -204.6527  251.52519  
427  59  1117.7649  510.6246  1228.8759  
428  98  -82.31371  -277.49426  289.44534  
429  94  208.08347  -466.85556  511.129  
430  76  -214.23758  574.3374  612.99365  
431  128  595.69037  1112.8295  1262.2346  
432  137  694.0889  -47.023487  695.68  
433  144  -46.97695  -1196.0377  1196.96  
434  91  246.87445  171.35503  300.51544  
435  119  -584.4367  196.16815  616.48047  
436  152  -217.62134  45.339127  222.29414  
437  73  142.48178  351.4552  379.23846  
438  153  -1068.6206  -478.49628  1170.8582  
439  64  -565.99554  -111.900246  576.9512  
440  116  222.80493  -52.316795  228.86478  
441  78  683.63586  1002.24817  1213.2021  
442  141  -166.80086  -370.81207  406.6007  
443  71  -506.6553  22.618908  507.15994  
444  109  747.4187  225.34552  780.6506  
445  105  409.86243  1434.3431  1491.7532  
446  150  -513.3213  249.83347  570.8901  
447  122  715.81396  -280.6234  768.8557  
448  118  506.3226  -253.73192  566.3413  
449  109  1292.8044  -396.27777  1352.1758  
450  105  -487.46198  681.135  837.59424  
451  89  732.81616  -905.2781  1164.7094  
452  102  236.62732  -501.2413  554.28815  
453  79  1027.315  518.13605  1150.5829  
454  36  -146.81357  -126.01869  193.48111  
455  121  1565.4006  -733.7982  1728.8549  
456  146  261.3749  853.90137  893.0086  
457  113  -175.36874  -662.61755  685.4314  
458  56  445.05942  422.61423  613.74316  
459  109  434.44156  232.50967  492.74762  
460  86  532.9962  820.5178  978.4347  
461  151  392.3996  301.94012  495.1215  
462  66  124.39787  73.10759  144.28981  
463  121  -679.14325  480.12872  831.7206  
464  68  884.15576  -293.93582  931.7348  
465  104  -219.26085  199.47752  296.423  
466  144  -341.55106  532.20905  632.37933  
467  137  93.590485  343.01782  355.5565  
468  113  -33.85145  -15.874725  37.38887  
469  123  -1300.591  -344.26575  1345.383  
470  86  166.43387  564.92175  588.9285  
471  131  -515.46423  508.4731  724.0499  
472  56  297.3892  905.58435  953.1649  
473  88  1900.4692  -783.1829  2055.519  
474  141  -630.985  729.4406  964.48206  
475  110  315.23767  1334.3672  1371.0983  
476  103  663.2525  118.85109  673.8171  
477  106  754.8471  -1171.0742  1393.2727  
478  60  -525.12646  -276.1702  593.3193  
479  75  183.83914  416.6149  455.37326  
480  43  -779.061  857.38074  1158.4635  
481  83  -747.04834  -414.47845  854.3264  
482  120  -390.642  -839.17096  925.63983  
483  78  752.6108  -1246.6128  1456.1821  
484  71  246.97531  -228.05899  336.1662  
485  137  -394.53568  -879.6824  964.1055  
486  104  546.45966  1117.1271  1243.6201  
487  158  -771.7248  -789.5356  1104.0496  
488  64  -38.82779  -122.885956  128.87418  
489  99  726.096  -111.12837  734.55084  
490  140  -959.8998  -127.87326  968.37964  
491  120  550.67584  -396.2964  678.4502  
492  135  356.0731  482.62906  599.7657  
493  117  656.9757  -738.87415  988.71234  
494  153  -409.93317  1332.7783  1394.3971  
495  93  348.40442  -391.8531  524.342  
496  131  223.72409  -224.28314  316.7892  
497  149  525.9335  353.70837  633.8104  
498  93  995.64746  -830.31726  1296.4338  
499  141  -266.67383  -684.00555  734.15155  
500  129  1039.4188  -448.70038  1132.1323  
501  48  1202.6821  -393.50153  1265.42  
502  122  466.31854  408.87595  620.1875  
503  155  192.82132  -1492.2069  1504.6134  
504  87  -1073.4028  -306.66193  1116.349  
505  129  -36.12471  -730.4814  731.3741  
506  141  298.87903  -194.57312  356.6334  
507  69  -934.08136  -573.4762  1096.0762  
508  89  -1450.9927  -152.37201  1458.9712  
509  96  181.54236  -102.62598  208.54189  
510  131  399.21313  -596.7664  717.9842  
511  65  -144.52072  -11.1610985  144.95105  
512  92  623.4471  -43.63766  624.9724  
513  60  779.51605  71.206505  782.76154  
514  81  -718.14294  1.6736526  718.1449  
515  86  1048.4291  648.6766  1232.8766  
516  141  418.48288  -422.3308  594.55133  
517  153  467.327  -1157.4355  1248.2194  
518  99  -7.9079933  -179.18887  179.3633  
519  81  40.957302  -638.569  639.8811  
520  23  754.315  -1031.8308  1278.1494  
521  79  672.0936  -172.70023  693.92737  
522  129  -838.86505  729.3952  1111.6259  
523  81  1066.1693  -819.58923  1344.7838  
524  42  -1016.3667  782.2962  1282.571  
525  115  -656.1897  964.7931  1166.795  
526  88  -63.701862  1706.2021  1707.3909  
527  57  520.4725  1272.9828  1375.2733  
528  137  -1326.7623  327.76266  1366.648  
529  114  -274.2366  121.75183  300.0487  
530  101  -328.756  -738.5396  808.4066  
531  150  370.1264  514.76166  634.0135  
532  58  -810.76764  -709.4712  1077.3549  
533  123  -277.09924  373.92563  465.40775  
534  86  1028.924  211.75246  1050.4873  
535  134  -122.087494  -961.3832  969.10425  
536  114  -82.55821  -353.8735  363.37628  
537  25  958.83484  -277.09467  998.071  
538  73  -84.70825  -565.2223  571.53455  
539  40  162.61766  -193.716  252.92369  
540  117  -451.59262  -293.97864  538.85  
541  75  439.31036  -162.56458  468.42377  
542  104  404.5972  332.3095  523.5728  
543  82  -152.18756  282.6479  321.01538  
544  96  752.68774  389.9511  847.7032  
545  128  154.65138  -250.09119  294.04532  
546  89  -212.94913  -271.6946  345.20328  
547  74  1425.4688  213.83096  1441.4176  
548  103  -942.3476  417.00223  1030.4901  
549  71  834.03625  730.80554  1108.9154  
550  117  1560.9146  893.2518  1798.4307  
551  101  164.717  -521.0106  546.42816  
552  63  389.06262  -733.67773  830.45337  
553  84  854.06714  810.1965  1177.2208  
554  139  42.717987  -49.053066  65.046364  
555  79  681.6375  -903.3177  1131.6415  
556  73  -575.72845  65.33835  579.42413  
557  106  116.50982  -489.97693  503.63867  
558  86  -145.27422  -226.45972  269.0513  
559  55  776.29175  573.60944  965.22363  
560  106  313.6121  778.08716  838.9113  
561  97  2038.2787  327.79352  2064.468  
562  52  -272.6365  172.59079  322.67358  
563  80  474.32623  -125.23176  490.57962  
564  68  -1958.7261  98.46347  1961.1993  
565  66  1063.3698  -1067.0382  1506.4281  
566  65  112.70397  -722.5581  731.295  
567  79  180.02365  158.54596  239.8861  
568  151  -427.38297  225.04811  483.01434  
569  143  -71.7115  -825.64014  828.7486  
570  74  488.68646  206.05054  530.35016  
571  120  742.1322  -900.26025  1166.717  
572  84  701.11475  -555.0864  894.2499  
573  111  -133.37648  -410.19244  431.33182  
574  94  404.06067  546.1294  679.3544  
575  125  27.61867  -446.52805  447.38138  
576  57  861.7657  170.76205  878.52136  
577  107  857.7247  211.9732  883.5294  
578  76  -109.77288  -499.49902  511.41898  
579  72  1040.6984  -323.52063  1089.8251  
580  120  -129.46886  466.0343  483.68393  
581  118  37.84327  240.49606  243.45528  
582  186  1110.065  702.3213  1313.5826  
583  113  212.09436  -806.59326  834.0124  
584  152  -711.23663  -718.0268  1010.65326  
585  50  -412.95758  -299.45135  510.10303  
586  154  427.9041  -95.683586  438.47153  
587  115  -171.61453  -1055.8693  1069.7249  
588  118  -519.38153  -661.0024  840.64343  
589  88  1028.0739  202.07892  1047.7461  
590  76  89.381035  -431.21042  440.37643  
591  130  683.2544  574.4924  892.68024  
592  91  387.12454  -939.2195  1015.87335  
593  68  -49.789616  -420.4509  423.38864  
594  85  -340.22098  1032.9751  1087.5604  
595  151  5.9607825  -69.415634  69.67109  
596  135  1360.1177  -365.94745  1408.4877  
597  78  -150.69676  -216.24225  263.57205  
598  61  -1065.6227  -67.73424  1067.7732  
599  103  -427.4033  598.843  735.7218  
600  107  122.71156  -544.20886  557.8722  
601  85  393.5859  -483.0271  623.0771  
602  148  1197.4156  249.01108  1223.0334  
603  120  -53.077374  -670.15985  672.2585  
604  148  288.63428  485.97745  565.229  
605  147  -125.37107  887.15344  895.96826  
606  78  1.7057719  862.74915  862.75085  
607  107  -804.50824  137.7819  816.2214  
608  82  -365.84225  1147.1372  1204.0615  
609  72  1507.1555  -199.50916  1520.3032  
610  57  251.51689  -205.18977  324.5976  
611  92  1479.6808  -251.70604  1500.9368  
612  83  930.5999  -432.12555  1026.0354  
613  98  -82.370476  1127.6252  1130.6298  
614  82  946.93024  1114.9465  1462.7996  
615  66  -723.12744  -1059.6641  1282.8878  
616  97  86.174515  725.56213  730.6617  
617  38  612.0481  1081.5244  1242.6979  
618  136  -380.49878  -358.07343  522.4901  
619  90  -292.37204  -225.57272  369.2756  
620  104  236.608  -155.6152  283.19504  
621  94  12.766931  -9.108437  15.683052  
622  76  655.7573  658.86316  929.57965  
623  72  -177.70383  -1743.5022  1752.5349  
624  37  181.46509  -512.4924  543.67084  
625  75  -188.88939  199.33313  274.6141  
626  122  -175.5258  225.3706  285.65927  
627  60  8.024569  -602.2646  602.31805  
628  79  1147.8981  912.63354  1466.4822  
629  117  -673.206  -211.46909  705.63837  
630  99  -630.74475  -225.6466  669.892  
631  162  -174.73425  431.3687  465.41492  
632  113  -1211.5868  -301.35083  1248.5011  
633  94  -427.07336  27.134949  427.93454  
634  102  -441.01385  -1206.8909  1284.9431  
635  78  -315.9976  710.977  778.0378  
636  161  -314.21854  -104.368416  331.09827  
637  64  492.21426  397.0857  632.41754  
638  116  -295.7666  65.6309  302.96088  
639  80  -118.5884  -10.89238  119.087585  
640  115  1120.8348  1153.7878  1608.5698  
641  51  -151.41685  -999.8092  1011.2099  
642  121  -111.23239  273.90222  295.6266  
643  102  489.1148  507.77414  705.0304  
644  51  601.2121  1.5179443  601.21405  
645  54  282.21146  648.94556  707.6536  
646  100  725.1723  -678.0212  992.76764  
647  73  576.0135  -9.575279  576.0931  
648  140  246.57797  -345.31992  424.3189  
649  67  -105.4023  202.21606  228.03723  
650  83  58.379105  626.4645  629.1787  
651  78  -17.368904  -262.26276  262.83728  
652  87  51.6223  538.6899  541.1577  
653  110  756.44977  77.215454  760.3805  
654  131  -376.622  896.69055  972.57294  
655  77  396.02087  35.60431  397.61816  
656  90  -894.81915  -1149.1271  1456.432  
657  43  -561.831  -550.1451  786.3292  
658  46  254.47354  -386.14664  462.45648  
659  71  1236.3  861.37933  1506.7887  
660  98  287.23172  629.10754  691.5767  
661  146  -53.12777  197.89352  204.90097  
662  97  372.52325  883.5363  958.8587  
663  186  93.8187  215.87714  235.38243  
664  145  -1142.3346  -260.30798  1171.6179  
665  107  171.70375  775.66644  794.4436  
666  132  -641.4973  -497.05313  811.5298  
667  124  777.6367  -945.07697  1223.8829  
668  105  623.51794  416.34988  749.74786  
669  155  -412.4209  1039.736  1118.5446  
670  140  1768.4573  320.87064  1797.3312  
671  130  -617.0166  -274.36224  675.266  
672  62  -80.90175  56.727432  98.80837  
673  146  -4.8917046  1088.1365  1088.1475  
674  111  -137.70844  942.0329  952.045  
675  122  -504.77734  -1188.6062  1291.35  
676  99  -774.597  792.37787  1108.09  
677  86  7.163143  58.73565  59.17083  
678  107  -468.21277  -1297.022  1378.945  
679  51  1404.4554  -188.37907  1417.0327  
680  112  448.13458  -146.30286  471.41187  
681  99  502.25916  -903.7767  1033.9615  
682  93  283.647  -764.3385  815.27234  
683  129  63.188297  698.34814  701.20105  
684  132  765.57  487.8229  907.7822  
685  87  642.5778  582.85944  867.5433  
686  157  209.02075  -182.1634  277.26013  
687  72  -365.73917  719.9581  807.5301  
688  72  -657.65314  492.80377  821.8049  
689  35  596.56226  -250.40141  646.98334  
690  110  846.63934  1118.1217  1402.4957  
691  113  476.8491  386.48904  613.8068  
692  87  -1020.4381  440.22342  1111.3463  
693  117  -28.770458  -698.02606  698.6187  
694  108  -53.54788  -878.1395  879.7706  
695  60  -693.8531  -530.29504  873.2955  
696  50  410.98834  -108.66377  425.11084  
697  87  218.80087  -423.12933  476.35306  
698  121  438.64667  -304.1204  533.7604  
699  109  -1542.4803  -682.6566  1686.7915  
700  54  -112.893654  881.11005  888.313  
701  90  836.4429  -1680.6754  1877.3136  
702  110  289.7274  51.24898  294.22513  
703  109  -140.20395  -792.9777  805.27686  
704  90  -502.91675  535.6262  734.7249  
705  36  -171.34415  40.018223  175.95532  
706  86  497.8287  -984.93024  1103.5946  
707  100  -123.45144  56.443157  135.74272  
708  88  -1117.8872  -128.56647  1125.256  
709  87  -902.3962  -244.59253  934.9569  
710  91  381.12628  245.65591  453.43585  
711  102  350.55652  -488.531  601.2923  
712  73  -295.91318  -37.99525  298.3425  
713  68  -841.4475  -697.98474  1093.2596  
714  130  -1036.6652  512.3001  1156.3417  
715  54  -344.1684  -352.74628  492.8304  
716  71  -541.9861  -775.7237  946.3066  
717  40  -897.6131  708.3762  1143.4623  
718  26  752.07336  -270.2397  799.152  
719  84  1545.5751  1309.8892  2025.9843  
720  139  429.79297  -79.91481  437.15942  
721  64  310.93817  -129.40579  336.79135  
722  113  -834.8862  -844.12213  1187.2562  
723  62  442.57172  -142.7244  465.01608  
724  100  911.29767  -658.7669  1124.472  
725  59  36.31084  -463.5359  464.9559  
726  118  385.04745  0.3937416  385.04767  
727  114  651.59143  489.4233  814.9273  
728  108  -281.19055  -685.18616  740.6404  
729  3  383.023  248.17819  456.3979  
730  73  1146.9125  -63.575993  1148.6732  
731  174  767.6273  893.1493  1177.6958  
732  131  -66.19553  -874.1886  876.6913  
733  127  -1200.3396  -368.58215  1255.6544  
734  110  -95.60072  -1061.5375  1065.8336  
735  78  449.424  1225.9502  1305.7319  
736  137  81.37572  -546.75415  552.77673  
737  112  1195.0365  -725.7044  1398.127  
738  67  389.9139  -672.48193  777.3447  
739  128  246.66438  582.6268  632.6905  
740  86  -339.89716  -987.0499  1043.9337  
741  47  555.5294  445.24973  711.94116  
742  49  -1429.7136  -131.2575  1435.7261  
743  69  -64.78462  547.2798  551.1009  
744  106  -82.230484  -307.25665  318.06995  
745  93  -952.0563  548.0643  1098.5378  
746  112  263.08478  -957.80383  993.2783  
747  76  477.58008  32.484837  478.68362  
748  63  -132.67673  -1228.8169  1235.9587  
749  104  -1859.9325  814.9775  2030.6494  
750  99  -343.65692  -320.64096  470.01138  
751  161  292.23334  -239.81354  378.0355  
752  77  1723.5702  -784.72864  1893.804  
753  118  -774.94714  561.1416  956.7774  
754  148  -665.2783  -548.0897  861.9731  
755  73  -388.36105  -39.03633  390.318  
756  60  157.0545  -433.5431  461.11356  
757  143  -452.68774  306.40042  546.6328  
758  160  680.9666  -684.7525  965.71295  
759  140  308.39905  -143.74144  340.25223  
760  149  -1117.8838  759.0641  1351.2374  
761  114  1258.6301  138.65071  1266.2439  
762  58  763.4728  -647.82294  1001.2818  
763  116  914.65857  -625.1929  1107.9109  
764  96  1744.974  -230.31993  1760.1084  
765  121  812.1819  -763.8498  1114.9467  
766  142  -242.48247  -399.73297  467.5299  
767  71  -202.41736  741.51605  768.64746  
768  112  117.18462  848.54584  856.59924  
769  97  -222.73703  477.59518  526.98096  
770  64  -110.537186  -88.17785  141.39944  
771  89  -48.7585  -839.8844  841.2985  
772  150  -1286.3368  1786.0514  2201.0547  
773  55  -1092.9225  -440.22284  1178.2511  
774  146  -19.885857  376.1617  376.687  
775  141  -199.69777  -635.2509  665.9001  
776  95  1702.5593  765.42523  1866.7041  
777  128  421.11896  446.43765  613.7164  
778  146  -376.37027  -24.141113  377.1437  
779  158  -193.12611  751.87836  776.2852  
780  137  383.7372  -559.6772  678.5962  
781  128  11.807053  -176.70901  177.10303  
782  78  681.8971  1107.1637  1300.3058  
783  76  -798.1091  1000.413  1279.7672  
784  148  682.4836  -822.61914  1068.8715  
785  46  -145.65509  111.29789  183.31018  
786  113  -242.62135  -675.75165  717.98706  
787  73  640.4552  557.14856  848.88007  
788  126  195.0304  -1112.1969  1129.1674  
789  128  323.80313  924.27716  979.3553  
790  74  -957.69415  204.60739  979.307  
791  87  -1509.9227  -730.82355  1677.4891  
792  86  -184.75076  -1461.3164  1472.9489  
793  79  820.892  73.61506  824.1862  
794  103  -45.548355  -905.71063  906.8552  
795  78  1395.5859  -445.90265  1465.0902  
796  169  -66.03771  270.8594  278.79346  
797  130  941.4818  -196.9255  961.8563  
798  87  475.4803  17.095161  475.7875  
799  91  43.222717  197.68478  202.35483  
